Cell ID	User	Profile
1.3	Ben Smith	IncStab

Sample Area	Irradiance	Pre Sweep Delay	Pre Sweep Bias (V)	Direction	Start (V)	End (V)	Interval (V)	#Points	Point Delay	Current Limit	Data Point Dwell
0.1	1	0.21	0	Stabilised-F	1.1	-0.1	0.015	1000	0	3	1

Voc (V)	Isc (A)	Jsc mA/cm≤)	Imax	Vmax	Pmax	Fill Factor	Efficiency	R at Voc	R at Isc	Power (w)	RefCell Temp	Total Test Time	Date & Time	SweepRate (V/s)	PreSoak Time (s)
False	N/A	N/A	1.69572	0.4894994	0.8300539	N/A	8.300538	N/A	N/A	N/A	1	170.11	27/10/2016 12:39:05	N/A	0.21

VSource (V)	Current Density (mA/cm≤)	IMeasure(mA)	Power(mW)	Time (s)
0.4895	21.1545	2.11545	1.035513	0.21
0.4895	19.65363	1.965363	0.9620452	0.35
0.4895	19.4841	1.94841	0.9537467	0.5
0.4895	19.38504	1.938504	0.9488977	0.66
0.4895	19.29133	1.929133	0.9443106	0.82
0.4895	19.20192	1.920192	0.939934	0.97
0.4895	19.13574	1.913574	0.9366944	1.13
0.4895	19.05253	1.905253	0.9326214	1.3
0.4895	19.03946	1.903946	0.9319816	1.46
0.4895	18.9939	1.89939	0.9297514	1.61
0.4895	18.9479	1.89479	0.9274997	1.77
0.4895	18.90332	1.890332	0.9253175	1.94
0.4895	18.86263	1.886263	0.9233257	2.1
0.4895	18.81767	1.881767	0.9211249	2.26
0.4895	18.79122	1.879122	0.9198302	2.43
0.4895	18.74752	1.874752	0.9176911	2.6
0.4895	18.67375	1.867375	0.91408	2.78
0.4895	18.62383	1.862383	0.9116365	2.95
0.4895	18.59571	1.859571	0.91026	3.12
0.4895	18.56159	1.856159	0.9085898	3.29
0.4895	18.53565	1.853565	0.90732	3.46
0.4895	18.51033	1.851033	0.9060806	3.62
0.4895	18.47372	1.847372	0.9042886	3.79
0.4895	18.45276	1.845276	0.9032626	3.95
0.4895	18.42507	1.842507	0.9019071	4.12
0.4895	18.39432	1.839432	0.9004019	4.29
0.4895	18.36481	1.836481	0.8989574	4.45
0.4895	18.33738	1.833738	0.8976147	4.62
0.4895	18.31136	1.831136	0.896341	4.78
0.4895	18.29117	1.829117	0.8953527	4.93
0.4895	18.25222	1.825222	0.8934461	5.1
0.4895	18.24	1.824	0.892848	5.26
0.4895	18.22276	1.822276	0.8920041	5.42
0.4895	18.19125	1.819125	0.8904617	5.58
0.4895	18.18	1.818	0.8899109	5.75
0.4895	18.13239	1.813239	0.8875805	5.91
0.4895	18.13004	1.813004	0.8874654	6.07
0.4895	18.1217	1.81217	0.8870572	6.22
0.4895	18.12414	1.812414	0.8871766	6.38
0.4895	18.09952	1.809952	0.8859715	6.54
0.4895	18.07459	1.807459	0.8847511	6.69
0.4895	18.05633	1.805633	0.8838573	6.84
0.4895	18.04738	1.804738	0.8834193	7
0.4895	18.04614	1.804614	0.8833585	7.16
0.4895	18.00625	1.800625	0.8814059	7.32
0.4895	17.99834	1.799834	0.8810187	7.47
0.4895	17.98255	1.798255	0.8802458	7.63
0.4895	17.95446	1.795446	0.8788708	7.78
0.4895	17.92777	1.792777	0.8775643	7.94
0.4895	17.90621	1.790621	0.876509	8.1
0.4895	17.88488	1.788488	0.8754649	8.25
0.4895	17.88384	1.788384	0.8754139	8.41
0.4895	17.85059	1.785059	0.8737863	8.56
0.4895	17.85784	1.785784	0.8741413	8.71
0.4895	17.85321	1.785321	0.8739146	8.87
0.4895	17.82664	1.782664	0.872614	9.04
0.4895	17.8237	1.78237	0.8724701	9.2
0.4895	17.80105	1.780105	0.8713614	9.35
0.4895	17.7917	1.77917	0.8709037	9.51
0.4895	17.77606	1.777606	0.8701381	9.67
0.4895	17.74868	1.774868	0.8687978	9.83
0.4895	17.73174	1.773174	0.8679687	9.99
0.4895	17.71863	1.771863	0.8673269	10.15
0.4895	17.70827	1.770827	0.8668198	10.3
0.4895	17.68253	1.768253	0.8655598	10.46
0.4895	17.68823	1.768823	0.8658388	10.63
0.4895	17.69762	1.769762	0.8662985	10.78
0.4895	17.67555	1.767555	0.8652182	10.93
0.4895	17.66528	1.766528	0.8647155	11.1
0.4895	17.63634	1.763634	0.8632988	11.26
0.4895	17.63114	1.763114	0.8630443	11.42
0.4895	17.61311	1.761311	0.8621618	11.58
0.4895	17.62186	1.762186	0.8625901	11.75
0.4895	17.62739	1.762739	0.8628607	11.91
0.4895	17.60742	1.760742	0.8618832	12.07
0.4895	17.5888	1.75888	0.8609717	12.24
0.4895	17.57606	1.757606	0.8603481	12.4
0.4895	17.55576	1.755576	0.8593544	12.56
0.4895	17.55382	1.755382	0.8592594	12.72
0.4895	17.5401	1.75401	0.8585879	12.88
0.4895	17.51961	1.751961	0.8575849	13.04
0.4895	17.53169	1.753169	0.8581762	13.21
0.4895	17.51755	1.751755	0.857484	13.37
0.4895	17.49458	1.749458	0.8563597	13.54
0.4895	17.50055	1.750055	0.8566519	13.7
0.4895	17.48106	1.748106	0.8556979	13.86
0.4895	17.44971	1.744971	0.8541633	14.03
0.4895	17.45036	1.745036	0.8541951	14.2
0.4895	17.42059	1.742059	0.8527378	14.35
0.4895	17.42004	1.742004	0.852711	14.51
0.4895	17.41875	1.741875	0.8526478	14.68
0.4895	17.40897	1.740897	0.8521691	14.84
0.4895	17.41553	1.741553	0.8524901	15
0.4895	17.41505	1.741505	0.8524667	15.17
0.4895	17.39654	1.739654	0.8515606	15.34
0.4895	17.37866	1.737866	0.8506854	15.5
0.4895	17.37355	1.737355	0.8504353	15.67
0.4895	17.3654	1.73654	0.8500363	15.83
0.4895	17.3667	1.73667	0.8500999	16
0.4895	17.35473	1.735473	0.849514	16.16
0.4895	17.34176	1.734176	0.8488792	16.34
0.4895	17.33231	1.733231	0.8484165	16.5
0.4895	17.32605	1.732605	0.8481101	16.68
0.4895	17.33265	1.733265	0.8484332	16.84
0.4895	17.32312	1.732312	0.8479667	17
0.4895	17.31283	1.731283	0.847463	17.17
0.4895	17.30319	1.730319	0.8469911	17.34
0.4895	17.2975	1.72975	0.8467126	17.5
0.4895	17.30196	1.730196	0.8469309	17.67
0.4895	17.28932	1.728932	0.8463122	17.83
0.4895	17.28452	1.728452	0.8460772	17.99
0.4895	17.26602	1.726602	0.8451716	18.16
0.4895	17.2664	1.72664	0.8451902	18.32
0.4895	17.25059	1.725059	0.8444164	18.49
0.4895	17.23997	1.723997	0.8438965	18.66
0.4895	17.24115	1.724115	0.8439543	18.83
0.4895	17.23635	1.723635	0.8437193	19
0.4895	17.22851	1.722851	0.8433356	19.16
0.4895	17.21382	1.721382	0.8426165	19.33
0.4895	17.20689	1.720689	0.8422773	19.5
0.4895	17.19616	1.719616	0.8417521	19.66
0.4895	17.18895	1.718895	0.8413991	19.82
0.4895	17.19202	1.719202	0.8415494	19.99
0.4895	17.18142	1.718142	0.8410305	20.16
0.4895	17.18553	1.718553	0.8412316	20.32
0.4895	17.17567	1.717567	0.840749	20.49
0.4895	17.17593	1.717593	0.8407617	20.66
0.4895	17.16061	1.716061	0.8400118	20.83
0.4895	17.13397	1.713397	0.8387078	21
0.4895	17.13157	1.713157	0.8385904	21.16
0.4895	17.12765	1.712765	0.8383985	21.32
0.4895	17.12595	1.712595	0.8383152	21.49
0.4895	17.11967	1.711967	0.8380078	21.64
0.4895	17.11106	1.711106	0.8375863	21.8
0.4895	17.09567	1.709567	0.836833	21.97
0.4895	17.10831	1.710831	0.8374518	22.14
0.4895	17.09698	1.709698	0.8368971	22.31
0.4895	17.10532	1.710532	0.8373054	22.47
0.4895	17.09934	1.709934	0.8370126	22.64
0.4895	17.08755	1.708755	0.8364356	22.81
0.4895	17.09632	1.709632	0.8368649	22.97
0.4895	17.07861	1.707861	0.8359979	23.14
0.4895	17.06392	1.706392	0.8352789	23.3
0.4895	17.06786	1.706786	0.8354717	23.46
0.4895	17.05896	1.705896	0.8350361	23.63
0.4895	17.06591	1.706591	0.8353763	23.8
0.4895	17.05388	1.705388	0.8347874	23.96
0.4895	17.05176	1.705176	0.8346836	24.12
0.4895	17.04051	1.704051	0.834133	24.29
0.4895	17.03643	1.703643	0.8339332	24.45
0.4895	17.03664	1.703664	0.8339435	24.61
0.4895	17.03292	1.703292	0.8337614	24.78
0.4895	17.01989	1.701989	0.8331236	24.95
0.4895	17.01488	1.701488	0.8328784	25.11
0.4895	17.01579	1.701579	0.8329229	25.28
0.4895	17.02376	1.702376	0.833313	25.45
0.4895	17.01199	1.701199	0.8327369	25.61
0.4895	17.03524	1.703524	0.833875	25.78
0.4895	17.02345	1.702345	0.8332978	25.94
0.4895	17.02679	1.702679	0.8334613	26.11
0.4895	17.03993	1.703993	0.8341045	26.27
0.4895	17.02147	1.702147	0.8332009	26.44
0.4895	17.0217	1.70217	0.8332122	26.61
0.4895	17.01616	1.701616	0.8329411	26.77
0.4895	16.99865	1.699865	0.8320839	26.94
0.4895	16.99974	1.699974	0.8321372	27.11
0.4895	17.00485	1.700485	0.8323874	27.29
0.4895	16.99461	1.699461	0.8318861	27.46
0.4895	17.0098	1.70098	0.8326297	27.63
0.4895	17.01257	1.701257	0.8327653	27.79
0.4895	16.99567	1.699567	0.831938	27.97
0.4895	16.99256	1.699256	0.8317857	28.13
0.4895	16.9924	1.69924	0.8317779	28.3
0.4895	16.98459	1.698459	0.8313957	28.46
0.4895	16.98407	1.698407	0.8313702	28.64
0.4895	16.96738	1.696738	0.8305532	28.81
0.4895	16.9729	1.69729	0.8308234	28.97
0.4895	16.96832	1.696832	0.8305992	29.15
0.4895	16.96251	1.696251	0.8303149	29.32
0.4895	16.96925	1.696925	0.8306448	29.48
0.4895	16.927	1.6927	0.8285766	29.66
0.4895	16.9258	1.69258	0.8285179	29.83
0.4895	16.90949	1.690949	0.8277195	30
0.4895	16.9418	1.69418	0.8293011	30.17
0.4895	16.95471	1.695471	0.829933	30.34
0.4895	16.94034	1.694034	0.8292296	30.5
0.4895	16.92373	1.692373	0.8284166	30.67
0.4895	16.93079	1.693079	0.8287622	30.84
0.4895	16.93084	1.693084	0.8287646	31.01
0.4895	16.91108	1.691108	0.8277974	31.18
0.4895	16.91735	1.691735	0.8281043	31.35
0.4895	16.93016	1.693016	0.8287314	31.52
0.4895	16.92407	1.692407	0.8284332	31.68
0.4895	16.91319	1.691319	0.8279006	31.85
0.4895	16.90689	1.690689	0.8275923	32.02
0.4895	16.90528	1.690528	0.8275135	32.18
0.4895	16.88666	1.688666	0.826602	32.35
0.4895	16.87497	1.687497	0.8260298	32.51
0.4895	16.88634	1.688634	0.8265864	32.68
0.4895	16.88205	1.688205	0.8263763	32.84
0.4895	16.88526	1.688526	0.8265335	33.01
0.4895	16.88608	1.688608	0.8265736	33.16
0.4895	16.87821	1.687821	0.8261884	33.32
0.4895	16.8754	1.68754	0.8260508	33.48
0.4895	16.88846	1.688846	0.8266901	33.65
0.4895	16.86794	1.686794	0.8256857	33.81
0.4895	16.867	1.6867	0.8256396	33.98
0.4895	16.85903	1.685903	0.8252495	34.16
0.4895	16.86547	1.686547	0.8255647	34.32
0.4895	16.8831	1.68831	0.8264278	34.49
0.4895	16.87545	1.687545	0.8260532	34.66
0.4895	16.88059	1.688059	0.8263049	34.84
0.4895	16.8806	1.68806	0.8263054	35
0.4895	16.88413	1.688413	0.8264781	35.17
0.4895	16.87246	1.687246	0.8259069	35.33
0.4895	16.87229	1.687229	0.8258986	35.5
0.4895	16.86281	1.686281	0.8254345	35.66
0.4895	16.9015	1.69015	0.8273284	35.83
0.4895	16.94601	1.694601	0.8295072	36
0.4895	16.93638	1.693638	0.8290358	36.17
0.4895	16.92853	1.692853	0.8286515	36.35
0.4895	16.90791	1.690791	0.8276422	36.53
0.4895	16.90481	1.690481	0.8274904	36.7
0.4895	16.91667	1.691667	0.8280709	36.87
0.4895	16.93378	1.693378	0.8289085	37.04
0.4895	16.94177	1.694177	0.8292996	37.2
0.4895	16.91916	1.691916	0.8281928	37.37
0.4895	16.90588	1.690588	0.8275428	37.54
0.4895	16.90684	1.690684	0.8275898	37.7
0.4895	16.90693	1.690693	0.8275942	37.86
0.4895	16.90926	1.690926	0.8277082	38.03
0.4895	16.90385	1.690385	0.8274434	38.2
0.4895	16.9055	1.69055	0.8275242	38.37
0.4895	16.90324	1.690324	0.8274136	38.54
0.4895	16.89409	1.689409	0.8269657	38.71
0.4895	16.86799	1.686799	0.8256881	38.88
0.4895	16.87108	1.687108	0.8258393	39.04
0.4895	16.85192	1.685192	0.8249015	39.2
0.4895	16.86186	1.686186	0.825388	39.37
0.4895	16.87045	1.687045	0.8258085	39.53
0.4895	16.85112	1.685112	0.8248623	39.69
0.4895	16.83154	1.683154	0.8239039	39.85
0.4895	16.8272	1.68272	0.8236914	40.02
0.4895	16.79278	1.679278	0.8220066	40.2
0.4895	16.83795	1.683795	0.8242176	40.37
0.4895	16.84904	1.684904	0.8247605	40.55
0.4895	16.84456	1.684456	0.8245412	40.72
0.4895	16.84528	1.684528	0.8245764	40.89
0.4895	16.82926	1.682926	0.8237923	41.05
0.4895	16.8351	1.68351	0.8240781	41.21
0.4895	16.84409	1.684409	0.8245182	41.38
0.4895	16.82248	1.682248	0.8234604	41.54
0.4895	16.81267	1.681267	0.8229802	41.71
0.4895	16.8157	1.68157	0.8231285	41.87
0.4895	16.81589	1.681589	0.8231378	42.03
0.4895	16.83101	1.683101	0.8238779	42.2
0.4895	16.83539	1.683539	0.8240923	42.36
0.4895	16.82639	1.682639	0.8236518	42.52
0.4895	16.80915	1.680915	0.8228078	42.68
0.4895	16.82459	1.682459	0.8235636	42.86
0.4895	16.81356	1.681356	0.8230237	43.02
0.4895	16.85643	1.685643	0.8251222	43.19
0.4895	16.86355	1.686355	0.8254707	43.36
0.4895	16.8719	1.68719	0.8258795	43.53
0.4895	16.85261	1.685261	0.8249353	43.7
0.4895	16.8443	1.68443	0.8245285	43.85
0.4895	16.86083	1.686083	0.8253376	44.02
0.4895	16.86023	1.686023	0.8253083	44.18
0.4895	16.8577	1.68577	0.8251844	44.35
0.4895	16.85366	1.685366	0.8249866	44.51
0.4895	16.85829	1.685829	0.8252133	44.68
0.4895	16.84801	1.684801	0.8247101	44.84
0.4895	16.85595	1.685595	0.8250988	45.01
0.4895	16.85842	1.685842	0.8252196	45.18
0.4895	16.8477	1.68477	0.8246949	45.34
0.4895	16.85018	1.685018	0.8248163	45.5
0.4895	16.84888	1.684888	0.8247526	45.67
0.4895	16.86058	1.686058	0.8253254	45.83
0.4895	16.85968	1.685968	0.8252813	46
0.4895	16.84175	1.684175	0.8244036	46.16
0.4895	16.81093	1.681093	0.822895	46.33
0.4895	16.83783	1.683783	0.8242118	46.5
0.4895	16.83619	1.683619	0.8241315	46.66
0.4895	16.82461	1.682461	0.8235646	46.83
0.4895	16.83268	1.683268	0.8239596	47
0.4895	16.83838	1.683838	0.8242387	47.17
0.4895	16.83076	1.683076	0.8238657	47.33
0.4895	16.83502	1.683502	0.8240742	47.5
0.4895	16.85468	1.685468	0.8250365	47.66
0.4895	16.8554	1.68554	0.8250718	47.83
0.4895	16.84812	1.684812	0.8247154	47.99
0.4895	16.83263	1.683263	0.8239572	48.16
0.4895	16.8273	1.68273	0.8236963	48.32
0.4895	16.8184	1.68184	0.8232606	48.49
0.4895	16.80454	1.680454	0.8225822	48.65
0.4895	16.79686	1.679686	0.8222063	48.82
0.4895	16.8122	1.68122	0.8229572	49
0.4895	16.80526	1.680526	0.8226175	49.16
0.4895	16.80529	1.680529	0.8226189	49.33
0.4895	16.79666	1.679666	0.8221965	49.49
0.4895	16.79662	1.679662	0.8221945	49.66
0.4895	16.79326	1.679326	0.8220301	49.83
0.4895	16.78905	1.678905	0.821824	49.99
0.4895	16.78918	1.678918	0.8218303	50.16
0.4895	16.80107	1.680107	0.8224124	50.32
0.4895	16.79541	1.679541	0.8221353	50.48
0.4895	16.80201	1.680201	0.8224584	50.65
0.4895	16.80039	1.680039	0.8223791	50.82
0.4895	16.80412	1.680412	0.8225617	50.98
0.4895	16.79454	1.679454	0.8220927	51.15
0.4895	16.81459	1.681459	0.8230742	51.31
0.4895	16.80857	1.680857	0.8227795	51.48
0.4895	16.79687	1.679687	0.8222068	51.64
0.4895	16.79218	1.679218	0.8219772	51.81
0.4895	16.79025	1.679025	0.8218827	51.98
0.4895	16.799	1.6799	0.822311	52.15
0.4895	16.79931	1.679931	0.8223262	52.31
0.4895	16.81493	1.681493	0.8230909	52.48
0.4895	16.80943	1.680943	0.8228216	52.64
0.4895	16.79695	1.679695	0.8222107	52.82
0.4895	16.78967	1.678967	0.8218543	52.99
0.4895	16.80629	1.680629	0.8226679	53.16
0.4895	16.80891	1.680891	0.8227962	53.32
0.4895	16.80088	1.680088	0.8224031	53.49
0.4895	16.78044	1.678044	0.8214025	53.66
0.4895	16.77383	1.677383	0.821079	53.84
0.4895	16.77713	1.677713	0.8212405	54.01
0.4895	16.77527	1.677527	0.8211494	54.18
0.4895	16.78871	1.678871	0.8218073	54.34
0.4895	16.78127	1.678127	0.8214431	54.51
0.4895	16.75557	1.675557	0.8201851	54.68
0.4895	16.75881	1.675881	0.8203437	54.84
0.4895	16.7615	1.67615	0.8204754	55.01
0.4895	16.76491	1.676491	0.8206424	55.19
0.4895	16.76433	1.676433	0.8206139	55.36
0.4895	16.76935	1.676935	0.8208596	55.52
0.4895	16.75686	1.675686	0.8202482	55.69
0.4895	16.74282	1.674282	0.819561	55.86
0.4895	16.74516	1.674516	0.8196756	56.02
0.4895	16.75872	1.675872	0.8203393	56.18
0.4895	16.75672	1.675672	0.8202415	56.36
0.4895	16.77044	1.677044	0.820913	56.53
0.4895	16.75203	1.675203	0.8200119	56.7
0.4895	16.76479	1.676479	0.8206365	56.87
0.4895	16.76051	1.676051	0.8204269	57.04
0.4895	16.76785	1.676785	0.8207862	57.2
0.4895	16.76969	1.676969	0.8208763	57.38
0.4895	16.76132	1.676132	0.8204666	57.55
0.4895	16.77008	1.677008	0.8208954	57.71
0.4895	16.77236	1.677236	0.821007	57.88
0.4895	16.76235	1.676235	0.820517	58.04
0.4895	16.78758	1.678758	0.821752	58.21
0.4895	16.77711	1.677711	0.8212395	58.38
0.4895	16.78138	1.678138	0.8214486	58.54
0.4895	16.78736	1.678736	0.8217412	58.71
0.4895	16.78103	1.678103	0.8214314	58.88
0.4895	16.77869	1.677869	0.8213168	59.04
0.4895	16.78849	1.678849	0.8217965	59.21
0.4895	16.79412	1.679412	0.8220721	59.38
0.4895	16.78893	1.678893	0.8218181	59.55
0.4895	16.78767	1.678767	0.8217564	59.71
0.4895	16.78373	1.678373	0.8215635	59.88
0.4895	16.7966	1.67966	0.8221935	60.05
0.4895	16.9491	1.69491	0.8296584	60.22
0.4895	16.93267	1.693267	0.8288541	60.38
0.4895	16.91478	1.691478	0.8279785	60.55
0.4895	16.89145	1.689145	0.8268365	60.73
0.4895	16.87714	1.687714	0.826136	60.91
0.4895	16.86201	1.686201	0.8253953	61.07
0.4895	16.84468	1.684468	0.8245471	61.24
0.4895	16.83884	1.683884	0.8242612	61.41
0.4895	16.84678	1.684678	0.8246498	61.58
0.4895	16.81135	1.681135	0.8229156	61.75
0.4895	16.82143	1.682143	0.823409	61.91
0.4895	16.82379	1.682379	0.8235245	62.09
0.4895	16.8166	1.68166	0.8231726	62.26
0.4895	16.81473	1.681473	0.823081	62.43
0.4895	16.81895	1.681895	0.8232876	62.6
0.4895	16.84273	1.684273	0.8244516	62.78
0.4895	16.84479	1.684479	0.8245524	62.95
0.4895	16.84491	1.684491	0.8245583	63.11
0.4895	16.82464	1.682464	0.8235661	63.28
0.4895	16.80083	1.680083	0.8224006	63.45
0.4895	16.79721	1.679721	0.8222234	63.61
0.4895	16.83417	1.683417	0.8240326	63.78
0.4895	16.8361	1.68361	0.8241271	63.95
0.4895	16.83776	1.683776	0.8242083	64.13
0.4895	16.83263	1.683263	0.8239572	64.29
0.4895	16.79959	1.679959	0.82234	64.46
0.4895	16.81174	1.681174	0.8229347	64.63
0.4895	16.81095	1.681095	0.822896	64.79
0.4895	16.8141	1.68141	0.8230501	64.97
0.4895	16.80059	1.680059	0.8223888	65.14
0.4895	16.79899	1.679899	0.8223105	65.31
0.4895	16.79632	1.679632	0.8221798	65.48
0.4895	16.7946	1.67946	0.8220957	65.65
0.4895	16.7942	1.67942	0.8220761	65.81
0.4895	16.80551	1.680551	0.8226297	65.98
0.4895	16.803	1.6803	0.8225068	66.14
0.4895	16.81729	1.681729	0.8232063	66.32
0.4895	16.80552	1.680552	0.8226302	66.49
0.4895	16.80585	1.680585	0.8226463	66.66
0.4895	16.81489	1.681489	0.8230888	66.83
0.4895	16.80212	1.680212	0.8224638	67
0.4895	16.80924	1.680924	0.8228123	67.17
0.4895	16.80505	1.680505	0.8226072	67.34
0.4895	16.81328	1.681328	0.8230101	67.5
0.4895	16.81959	1.681959	0.8233189	67.67
0.4895	16.80313	1.680313	0.8225132	67.84
0.4895	16.81715	1.681715	0.8231995	68.02
0.4895	16.82972	1.682972	0.8238147	68.19
0.4895	16.82422	1.682422	0.8235456	68.36
0.4895	16.83307	1.683307	0.8239788	68.54
0.4895	16.82546	1.682546	0.8236063	68.71
0.4895	16.79342	1.679342	0.8220379	68.88
0.4895	16.81129	1.681129	0.8229126	69.04
0.4895	16.81812	1.681812	0.823247	69.21
0.4895	16.80883	1.680883	0.8227922	69.38
0.4895	16.80568	1.680568	0.822638	69.56
0.4895	16.80576	1.680576	0.8226419	69.73
0.4895	16.80384	1.680384	0.822548	69.89
0.4895	16.81257	1.681257	0.8229753	70.07
0.4895	16.82762	1.682762	0.823712	70.25
0.4895	16.81249	1.681249	0.8229713	70.43
0.4895	16.81527	1.681527	0.8231075	70.6
0.4895	16.80793	1.680793	0.8227482	70.77
0.4895	16.79256	1.679256	0.8219958	70.94
0.4895	16.79403	1.679403	0.8220677	71.12
0.4895	16.78915	1.678915	0.8218289	71.28
0.4895	16.78939	1.678939	0.8218406	71.45
0.4895	16.78738	1.678738	0.8217422	71.63
0.4895	16.7873	1.67873	0.8217383	71.79
0.4895	16.7954	1.67954	0.8221349	71.96
0.4895	16.78954	1.678954	0.821848	72.12
0.4895	16.78789	1.678789	0.8217672	72.29
0.4895	16.78239	1.678239	0.821498	72.46
0.4895	16.77591	1.677591	0.8211808	72.64
0.4895	16.77945	1.677945	0.8213541	72.8
0.4895	16.77702	1.677702	0.8212351	72.97
0.4895	16.79147	1.679147	0.8219424	73.14
0.4895	16.97163	1.697163	0.8307613	73.31
0.4895	17.00264	1.700264	0.8322792	73.49
0.4895	16.96477	1.696477	0.8304255	73.66
0.4895	16.93779	1.693779	0.8291048	73.83
0.4895	16.92708	1.692708	0.8285806	74
0.4895	16.91223	1.691223	0.8278536	74.18
0.4895	16.89088	1.689088	0.8268086	74.34
0.4895	16.87547	1.687547	0.8260542	74.51
0.4895	16.88714	1.688714	0.8266255	74.68
0.4895	16.9002	1.69002	0.8272647	74.86
0.4895	16.89477	1.689477	0.8269989	75.04
0.4895	16.90464	1.690464	0.8274821	75.21
0.4895	16.88351	1.688351	0.8264478	75.39
0.4895	16.8885	1.68885	0.826692	75.56
0.4895	16.88067	1.688067	0.8263087	75.74
0.4895	16.88191	1.688191	0.8263695	75.91
0.4895	16.87735	1.687735	0.8261462	76.08
0.4895	16.88934	1.688934	0.8267332	76.25
0.4895	16.89848	1.689848	0.8271806	76.43
0.4895	16.88461	1.688461	0.8265016	76.59
0.4895	16.88705	1.688705	0.8266211	76.76
0.4895	16.88847	1.688847	0.8266906	76.94
0.4895	16.87488	1.687488	0.8260253	77.12
0.4895	16.87737	1.687737	0.8261473	77.29
0.4895	16.86546	1.686546	0.8255642	77.46
0.4895	16.86875	1.686875	0.8257253	77.64
0.4895	16.87034	1.687034	0.8258031	77.81
0.4895	16.87399	1.687399	0.8259818	77.99
0.4895	16.87746	1.687746	0.8261517	78.16
0.4895	16.86054	1.686054	0.8253234	78.34
0.4895	16.86176	1.686176	0.8253831	78.51
0.4895	16.8757	1.68757	0.8260655	78.68
0.4895	16.87889	1.687889	0.8262216	78.86
0.4895	16.86886	1.686886	0.8257306	79.04
0.4895	16.86279	1.686279	0.8254336	79.2
0.4895	16.86525	1.686525	0.825554	79.38
0.4895	16.87232	1.687232	0.8259001	79.55
0.4895	16.89672	1.689672	0.8270944	79.73
0.4895	16.90618	1.690618	0.8275575	79.91
0.4895	16.90579	1.690579	0.8275384	80.09
0.4895	16.88171	1.688171	0.8263597	80.26
0.4895	16.8785	1.68785	0.8262026	80.43
0.4895	16.89097	1.689097	0.826813	80.6
0.4895	16.87467	1.687467	0.8260151	80.78
0.4895	16.88219	1.688219	0.8263832	80.95
0.4895	16.90889	1.690889	0.8276901	81.12
0.4895	16.8823	1.68823	0.8263886	81.29
0.4895	16.87647	1.687647	0.8261032	81.47
0.4895	16.87698	1.687698	0.8261281	81.65
0.4895	16.88358	1.688358	0.8264512	81.82
0.4895	16.88156	1.688156	0.8263524	82
0.4895	16.87457	1.687457	0.8260102	82.16
0.4895	16.8742	1.68742	0.825992	82.34
0.4895	16.8716	1.68716	0.8258648	82.51
0.4895	16.86904	1.686904	0.8257394	82.68
0.4895	16.87921	1.687921	0.8262373	82.84
0.4895	16.87085	1.687085	0.8258281	83.01
0.4895	16.88258	1.688258	0.8264023	83.18
0.4895	16.8821	1.68821	0.8263788	83.34
0.4895	16.87312	1.687312	0.8259392	83.5
0.4895	16.87199	1.687199	0.8258839	83.67
0.4895	16.87441	1.687441	0.8260024	83.84
0.4895	16.87154	1.687154	0.8258619	84
0.4895	16.89431	1.689431	0.8269764	84.17
0.4895	16.89641	1.689641	0.8270792	84.34
0.4895	16.90019	1.690019	0.8272643	84.5
0.4895	16.88348	1.688348	0.8264464	84.68
0.4895	16.87966	1.687966	0.8262593	84.85
0.4895	16.86892	1.686892	0.8257336	85.02
0.4895	16.86492	1.686492	0.8255378	85.18
0.4895	16.86512	1.686512	0.8255476	85.35
0.4895	16.86215	1.686215	0.8254023	85.52
0.4895	16.85127	1.685127	0.8248696	85.68
0.4895	16.85982	1.685982	0.8252882	85.85
0.4895	16.8646	1.68646	0.8255222	86.02
0.4895	16.86997	1.686997	0.825785	86.19
0.4895	16.86674	1.686674	0.8256269	86.36
0.4895	16.85542	1.685542	0.8250728	86.53
0.4895	16.85542	1.685542	0.8250728	86.7
0.4895	16.85969	1.685969	0.8252818	86.86
0.4895	16.85519	1.685519	0.8250615	87.02
0.4895	16.85484	1.685484	0.8250444	87.19
0.4895	16.86383	1.686383	0.8254845	87.36
0.4895	16.84721	1.684721	0.8246709	87.53
0.4895	16.84377	1.684377	0.8245025	87.71
0.4895	16.8611	1.68611	0.8253508	87.89
0.4895	16.85612	1.685612	0.825107	88.05
0.4895	16.8559	1.68559	0.8250963	88.23
0.4895	16.86823	1.686823	0.8256999	88.41
0.4895	16.86259	1.686259	0.8254238	88.58
0.4895	16.85037	1.685037	0.8248256	88.76
0.4895	16.86076	1.686076	0.8253342	88.93
0.4895	16.85366	1.685366	0.8249866	89.1
0.4895	16.8551	1.68551	0.8250571	89.27
0.4895	16.85071	1.685071	0.8248422	89.43
0.4895	16.84569	1.684569	0.8245965	89.6
0.4895	16.85089	1.685089	0.824851	89.77
0.4895	16.85728	1.685728	0.8251638	89.94
0.4895	16.86983	1.686983	0.8257781	90.11
0.4895	16.85885	1.685885	0.8252407	90.29
0.4895	16.85334	1.685334	0.824971	90.45
0.4895	16.85928	1.685928	0.8252617	90.62
0.4895	16.84457	1.684457	0.8245416	90.79
0.4895	16.85712	1.685712	0.825156	90.97
0.4895	16.84909	1.684909	0.8247629	91.13
0.4895	16.82249	1.682249	0.8234608	91.3
0.4895	16.84212	1.684212	0.8244218	91.48
0.4895	16.83945	1.683945	0.8242911	91.65
0.4895	16.83856	1.683856	0.8242475	91.81
0.4895	16.83921	1.683921	0.8242793	91.98
0.4895	16.82606	1.682606	0.8236356	92.15
0.4895	16.84092	1.684092	0.8243631	92.32
0.4895	16.8394	1.68394	0.8242886	92.48
0.4895	16.84768	1.684768	0.8246939	92.66
0.4895	16.85281	1.685281	0.824945	92.83
0.4895	16.83275	1.683275	0.8239631	93
0.4895	16.82494	1.682494	0.8235808	93.17
0.4895	16.82229	1.682229	0.8234511	93.34
0.4895	16.82024	1.682024	0.8233507	93.5
0.4895	16.81285	1.681285	0.822989	93.68
0.4895	16.79508	1.679508	0.8221191	93.85
0.4895	16.81933	1.681933	0.8233062	94.01
0.4895	16.817	1.6817	0.8231921	94.18
0.4895	16.81908	1.681908	0.8232939	94.35
0.4895	16.83019	1.683019	0.8238378	94.52
0.4895	16.83833	1.683833	0.8242362	94.7
0.4895	16.84511	1.684511	0.8245681	94.88
0.4895	16.83894	1.683894	0.8242661	95.05
0.4895	16.83707	1.683707	0.8241745	95.21
0.4895	16.82646	1.682646	0.8236552	95.38
0.4895	16.84206	1.684206	0.8244188	95.55
0.4895	16.83421	1.683421	0.8240346	95.72
0.4895	16.84526	1.684526	0.8245754	95.89
0.4895	16.85092	1.685092	0.8248525	96.08
0.4895	16.84362	1.684362	0.8244952	96.26
0.4895	16.83797	1.683797	0.8242186	96.43
0.4895	16.83006	1.683006	0.8238314	96.6
0.4895	16.83018	1.683018	0.8238373	96.77
0.4895	16.82001	1.682001	0.8233395	96.95
0.4895	16.82607	1.682607	0.8236361	97.12
0.4895	16.81734	1.681734	0.8232087	97.29
0.4895	16.82849	1.682849	0.8237546	97.46
0.4895	16.82967	1.682967	0.8238123	97.63
0.4895	16.8371	1.68371	0.824176	97.79
0.4895	16.8275	1.68275	0.8237061	97.96
0.4895	16.82482	1.682482	0.8235749	98.13
0.4895	16.83054	1.683054	0.8238549	98.3
0.4895	16.818	1.6818	0.8232411	98.47
0.4895	16.8118	1.68118	0.8229376	98.64
0.4895	16.82211	1.682211	0.8234423	98.81
0.4895	16.82937	1.682937	0.8237976	98.98
0.4895	16.83086	1.683086	0.8238706	99.14
0.4895	16.82284	1.682284	0.823478	99.32
0.4895	16.83417	1.683417	0.8240326	99.49
0.4895	16.82976	1.682976	0.8238167	99.66
0.4895	16.82331	1.682331	0.823501	99.83
0.4895	16.82421	1.682421	0.823545	100.01
0.4895	16.81463	1.681463	0.8230761	100.18
0.4895	16.8214	1.68214	0.8234075	100.35
0.4895	16.82451	1.682451	0.8235598	100.52
0.4895	16.82597	1.682597	0.8236312	100.7
0.4895	16.81797	1.681797	0.8232396	100.87
0.4895	16.82153	1.682153	0.8234138	101.04
0.4895	16.8326	1.68326	0.8239557	101.2
0.4895	16.8262	1.68262	0.8236425	101.37
0.4895	16.82637	1.682637	0.8236508	101.54
0.4895	16.82016	1.682016	0.8233468	101.7
0.4895	16.81444	1.681444	0.8230668	101.88
0.4895	16.83848	1.683848	0.8242436	102.05
0.4895	16.84057	1.684057	0.8243459	102.22
0.4895	16.83766	1.683766	0.8242034	102.39
0.4895	16.83682	1.683682	0.8241623	102.57
0.4895	16.82771	1.682771	0.8237163	102.74
0.4895	16.82674	1.682674	0.8236689	102.91
0.4895	16.82182	1.682182	0.823428	103.08
0.4895	16.8243	1.68243	0.8235494	103.25
0.4895	16.82556	1.682556	0.8236111	103.41
0.4895	16.81376	1.681376	0.8230335	103.58
0.4895	16.81302	1.681302	0.8229973	103.75
0.4895	16.81618	1.681618	0.8231519	103.91
0.4895	16.8202	1.68202	0.8233488	104.08
0.4895	16.81139	1.681139	0.8229175	104.25
0.4895	16.81085	1.681085	0.8228911	104.41
0.4895	16.80655	1.680655	0.8226806	104.58
0.4895	16.81451	1.681451	0.8230702	104.75
0.4895	16.81574	1.681574	0.8231304	104.92
0.4895	16.81539	1.681539	0.8231133	105.09
0.4895	16.82755	1.682755	0.8237085	105.25
0.4895	16.83557	1.683557	0.8241012	105.42
0.4895	16.82174	1.682174	0.8234242	105.59
0.4895	16.82321	1.682321	0.8234961	105.75
0.4895	16.82687	1.682687	0.8236753	105.92
0.4895	16.8185	1.68185	0.8232656	106.09
0.4895	16.81848	1.681848	0.8232646	106.26
0.4895	16.83503	1.683503	0.8240747	106.43
0.4895	16.8335	1.68335	0.8239998	106.6
0.4895	16.83928	1.683928	0.8242828	106.77
0.4895	16.83649	1.683649	0.8241462	106.93
0.4895	16.83096	1.683096	0.8238755	107.1
0.4895	16.83147	1.683147	0.8239004	107.27
0.4895	16.82526	1.682526	0.8235965	107.45
0.4895	16.82021	1.682021	0.8233492	107.61
0.4895	16.82639	1.682639	0.8236518	107.79
0.4895	16.83407	1.683407	0.8240277	107.96
0.4895	16.83202	1.683202	0.8239273	108.13
0.4895	16.83728	1.683728	0.8241848	108.3
0.4895	16.8349	1.68349	0.8240684	108.47
0.4895	16.82707	1.682707	0.8236851	108.64
0.4895	16.82481	1.682481	0.8235744	108.82
0.4895	16.83578	1.683578	0.8241114	108.99
0.4895	16.82737	1.682737	0.8236997	109.16
0.4895	16.83571	1.683571	0.8241079	109.34
0.4895	16.82426	1.682426	0.8235475	109.52
0.4895	16.82246	1.682246	0.8234594	109.7
0.4895	16.83975	1.683975	0.8243057	109.87
0.4895	16.83343	1.683343	0.8239964	110.04
0.4895	16.84368	1.684368	0.8244981	110.21
0.4895	16.82764	1.682764	0.823713	110.39
0.4895	16.84303	1.684303	0.8244663	110.57
0.4895	16.84096	1.684096	0.824365	110.75
0.4895	16.84191	1.684191	0.8244115	110.91
0.4895	16.84728	1.684728	0.8246744	111.08
0.4895	16.90173	1.690173	0.8273396	111.25
0.4895	16.90406	1.690406	0.8274537	111.42
0.4895	16.88797	1.688797	0.8266661	111.59
0.4895	16.8761	1.68761	0.8260851	111.77
0.4895	16.87306	1.687306	0.8259363	111.93
0.4895	16.86167	1.686167	0.8253787	112.1
0.4895	16.8677	1.68677	0.8256739	112.28
0.4895	16.86582	1.686582	0.8255818	112.45
0.4895	16.8772	1.68772	0.8261389	112.63
0.4895	16.86962	1.686962	0.8257679	112.79
0.4895	16.86325	1.686325	0.825456	112.97
0.4895	16.85773	1.685773	0.8251859	113.15
0.4895	16.86345	1.686345	0.8254659	113.33
0.4895	16.86055	1.686055	0.8253239	113.5
0.4895	16.9473	1.69473	0.8295704	113.67
0.4895	17.08696	1.708696	0.8364066	113.84
0.4895	17.15924	1.715924	0.8399448	114.01
0.4895	17.17315	1.717315	0.8406256	114.18
0.4895	17.13214	1.713214	0.8386183	114.35
0.4895	17.10455	1.710455	0.8372677	114.53
0.4895	17.08654	1.708654	0.8363861	114.71
0.4895	17.07501	1.707501	0.8358217	114.88
0.4895	17.07451	1.707451	0.8357973	115.05
0.4895	17.07201	1.707201	0.8356749	115.22
0.4895	17.05384	1.705384	0.8347855	115.4
0.4895	17.04099	1.704099	0.8341565	115.58
0.4895	17.01537	1.701537	0.8329024	115.76
0.4895	17.005	1.7005	0.8323947	115.93
0.4895	17.00659	1.700659	0.8324726	116.11
0.4895	16.99883	1.699883	0.8320927	116.28
0.4895	17.00253	1.700253	0.8322738	116.45
0.4895	17.00101	1.700101	0.8321995	116.63
0.4895	16.98438	1.698438	0.8313854	116.8
0.4895	16.9662	1.69662	0.8304955	116.96
0.4895	16.98649	1.698649	0.8314887	117.13
0.4895	16.98133	1.698133	0.8312361	117.3
0.4895	16.98098	1.698098	0.8312189	117.47
0.4895	16.99034	1.699034	0.8316771	117.64
0.4895	16.96894	1.696894	0.8306296	117.81
0.4895	16.95925	1.695925	0.8301553	117.98
0.4895	16.94891	1.694891	0.8296491	118.16
0.4895	16.9517	1.69517	0.8297857	118.32
0.4895	16.94907	1.694907	0.8296569	118.5
0.4895	16.94208	1.694208	0.8293148	118.67
0.4895	16.93417	1.693417	0.8289276	118.84
0.4895	16.94414	1.694414	0.8294156	119.01
0.4895	16.9461	1.69461	0.8295116	119.18
0.4895	16.93453	1.693453	0.8289452	119.35
0.4895	16.9399	1.69399	0.8292081	119.52
0.4895	16.94086	1.694086	0.829255	119.69
0.4895	16.94216	1.694216	0.8293187	119.87
0.4895	16.92525	1.692525	0.828491	120.04
0.4895	16.93228	1.693228	0.8288351	120.21
0.4895	16.91867	1.691867	0.8281689	120.38
0.4895	16.92209	1.692209	0.8283363	120.56
0.4895	16.93617	1.693617	0.8290255	120.74
0.4895	16.93919	1.693919	0.8291733	120.92
0.4895	16.93743	1.693743	0.8290872	121.09
0.4895	16.93702	1.693702	0.8290671	121.26
0.4895	16.93198	1.693198	0.8288204	121.43
0.4895	16.93208	1.693208	0.8288253	121.61
0.4895	16.92722	1.692722	0.8285874	121.78
0.4895	16.93362	1.693362	0.8289007	121.95
0.4895	16.92314	1.692314	0.8283877	122.13
0.4895	16.9111	1.69111	0.8277983	122.3
0.4895	16.91367	1.691367	0.8279241	122.46
0.4895	16.91224	1.691224	0.8278541	122.63
0.4895	16.91316	1.691316	0.8278992	122.8
0.4895	16.9133	1.69133	0.827906	122.99
0.4895	16.91401	1.691401	0.8279408	123.17
0.4895	16.91802	1.691802	0.828137	123.34
0.4895	16.91915	1.691915	0.8281924	123.51
0.4895	16.92417	1.692417	0.8284381	123.68
0.4895	16.90839	1.690839	0.8276657	123.85
0.4895	16.90028	1.690028	0.8272687	124.02
0.4895	16.90814	1.690814	0.8276535	124.2
0.4895	16.92486	1.692486	0.8284719	124.37
0.4895	16.92851	1.692851	0.8286505	124.54
0.4895	16.92307	1.692307	0.8283843	124.71
0.4895	16.92515	1.692515	0.8284861	124.88
0.4895	16.91717	1.691717	0.8280954	125.06
0.4895	16.91724	1.691724	0.8280988	125.24
0.4895	16.9058	1.69058	0.8275389	125.41
0.4895	16.92038	1.692038	0.8282526	125.58
0.4895	16.91201	1.691201	0.8278428	125.76
0.4895	16.9314	1.69314	0.828792	125.93
0.4895	16.9275	1.69275	0.8286011	126.11
0.4895	16.91605	1.691605	0.8280406	126.28
0.4895	16.92963	1.692963	0.8287054	126.45
0.4895	16.93508	1.693508	0.8289722	126.62
0.4895	16.92283	1.692283	0.8283725	126.79
0.4895	16.92777	1.692777	0.8286144	126.96
0.4895	16.92657	1.692657	0.8285556	127.13
0.4895	16.91747	1.691747	0.8281101	127.3
0.4895	16.90945	1.690945	0.8277175	127.48
0.4895	16.92682	1.692682	0.8285678	127.64
0.4895	16.92098	1.692098	0.8282819	127.82
0.4895	16.90581	1.690581	0.8275394	128
0.4895	16.90728	1.690728	0.8276113	128.18
0.4895	16.91158	1.691158	0.8278219	128.34
0.4895	16.91533	1.691533	0.8280054	128.52
0.4895	16.94394	1.694394	0.8294058	128.7
0.4895	16.92839	1.692839	0.8286447	128.87
0.4895	16.91281	1.691281	0.827882	129.04
0.4895	16.92509	1.692509	0.8284832	129.21
0.4895	16.93006	1.693006	0.8287264	129.39
0.4895	16.93183	1.693183	0.828813	129.57
0.4895	16.92155	1.692155	0.8283098	129.74
0.4895	16.93807	1.693807	0.8291185	129.91
0.4895	16.93364	1.693364	0.8289016	130.08
0.4895	16.94164	1.694164	0.8292933	130.25
0.4895	16.94186	1.694186	0.829304	130.43
0.4895	16.92562	1.692562	0.8285091	130.61
0.4895	16.92678	1.692678	0.8285658	130.79
0.4895	16.924	1.6924	0.8284298	130.95
0.4895	16.93244	1.693244	0.8288429	131.13
0.4895	16.93998	1.693998	0.829212	131.3
0.4895	16.94525	1.694525	0.82947	131.48
0.4895	16.94738	1.694738	0.8295742	131.66
0.4895	16.93109	1.693109	0.8287768	131.82
0.4895	16.94572	1.694572	0.829493	132
0.4895	16.94676	1.694676	0.8295439	132.17
0.4895	16.94663	1.694663	0.8295375	132.35
0.4895	16.94421	1.694421	0.8294191	132.53
0.4895	16.93032	1.693032	0.8287392	132.7
0.4895	16.92807	1.692807	0.828629	132.88
0.4895	16.93148	1.693148	0.8287959	133.05
0.4895	16.93963	1.693963	0.8291949	133.23
0.4895	16.94319	1.694319	0.8293691	133.41
0.4895	16.94499	1.694499	0.8294572	133.58
0.4895	16.94835	1.694835	0.8296217	133.76
0.4895	16.9367	1.69367	0.8290514	133.93
0.4895	16.93144	1.693144	0.8287939	134.12
0.4895	16.935	1.6935	0.8289682	134.3
0.4895	16.92953	1.692953	0.8287005	134.47
0.4895	16.92732	1.692732	0.8285923	134.64
0.4895	16.93624	1.693624	0.8290289	134.81
0.4895	16.93423	1.693423	0.8289306	134.99
0.4895	16.9466	1.69466	0.829536	135.16
0.4895	16.94079	1.694079	0.8292516	135.33
0.4895	16.93484	1.693484	0.8289604	135.5
0.4895	16.93979	1.693979	0.8292027	135.68
0.4895	16.9318	1.69318	0.8288116	135.84
0.4895	16.93897	1.693897	0.8291625	136.01
0.4895	16.94545	1.694545	0.8294798	136.19
0.4895	16.94601	1.694601	0.8295072	136.37
0.4895	16.95038	1.695038	0.829721	136.54
0.4895	16.94065	1.694065	0.8292448	136.71
0.4895	16.93142	1.693142	0.828793	136.88
0.4895	16.9285	1.69285	0.8286501	137.06
0.4895	16.93882	1.693882	0.8291552	137.24
0.4895	16.94603	1.694603	0.8295081	137.42
0.4895	16.93583	1.693583	0.8290089	137.59
0.4895	16.93472	1.693472	0.8289545	137.75
0.4895	16.93395	1.693395	0.8289168	137.93
0.4895	16.92783	1.692783	0.8286173	138.11
0.4895	16.93947	1.693947	0.829187	138.29
0.4895	16.94117	1.694117	0.8292702	138.47
0.4895	16.93636	1.693636	0.8290347	138.64
0.4895	16.93083	1.693083	0.8287641	138.82
0.4895	16.93706	1.693706	0.8290691	138.99
0.4895	16.93884	1.693884	0.8291562	139.16
0.4895	16.93073	1.693073	0.8287593	139.34
0.4895	16.92567	1.692567	0.8285115	139.52
0.4895	16.94013	1.694013	0.8292193	139.7
0.4895	16.93335	1.693335	0.8288875	139.88
0.4895	16.92325	1.692325	0.828393	140.04
0.4895	16.9191	1.69191	0.8281899	140.21
0.4895	16.92543	1.692543	0.8284998	140.39
0.4895	16.93299	1.693299	0.8288699	140.57
0.4895	16.93118	1.693118	0.8287812	140.75
0.4895	16.9369	1.69369	0.8290612	140.92
0.4895	16.93911	1.693911	0.8291694	141.09
0.4895	16.93501	1.693501	0.8289687	141.27
0.4895	16.93602	1.693602	0.8290181	141.45
0.4895	16.93074	1.693074	0.8287597	141.62
0.4895	16.9342	1.69342	0.8289291	141.8
0.4895	16.93786	1.693786	0.8291082	141.98
0.4895	16.92962	1.692962	0.8287049	142.16
0.4895	16.93477	1.693477	0.828957	142.32
0.4895	16.92471	1.692471	0.8284646	142.5
0.4895	16.92441	1.692441	0.8284498	142.67
0.4895	16.94007	1.694007	0.8292164	142.85
0.4895	17.00043	1.700043	0.832171	143.02
0.4895	17.01944	1.701944	0.8331016	143.19
0.4895	17.00772	1.700772	0.8325279	143.37
0.4895	16.99812	1.699812	0.832058	143.54
0.4895	16.99939	1.699939	0.8321201	143.72
0.4895	16.99561	1.699561	0.8319351	143.89
0.4895	16.98807	1.698807	0.831566	144.08
0.4895	16.98683	1.698683	0.8315053	144.25
0.4895	16.98398	1.698398	0.8313658	144.43
0.4895	16.97261	1.697261	0.8308092	144.6
0.4895	16.97414	1.697414	0.8308842	144.77
0.4895	16.98693	1.698693	0.8315102	144.95
0.4895	16.97764	1.697764	0.8310555	145.11
0.4895	16.97169	1.697169	0.8307642	145.28
0.4895	16.97276	1.697276	0.8308166	145.46
0.4895	16.98287	1.698287	0.8313115	145.64
0.4895	16.98203	1.698203	0.8312703	145.81
0.4895	16.95752	1.695752	0.8300706	145.98
0.4895	16.9476	1.69476	0.829585	146.16
0.4895	16.95532	1.695532	0.8299628	146.34
0.4895	16.95682	1.695682	0.8300363	146.51
0.4895	16.96151	1.696151	0.8302659	146.69
0.4895	16.96834	1.696834	0.8306002	146.87
0.4895	16.95294	1.695294	0.8298464	147.04
0.4895	16.94664	1.694664	0.829538	147.21
0.4895	16.96433	1.696433	0.8304039	147.39
0.4895	16.95278	1.695278	0.8298386	147.56
0.4895	16.95391	1.695391	0.8298939	147.74
0.4895	16.95682	1.695682	0.8300363	147.91
0.4895	16.94776	1.694776	0.8295929	148.09
0.4895	16.93813	1.693813	0.8291214	148.26
0.4895	16.94838	1.694838	0.8296232	148.43
0.4895	16.94963	1.694963	0.8296844	148.6
0.4895	16.94038	1.694038	0.8292316	148.77
0.4895	16.94738	1.694738	0.8295742	148.95
0.4895	16.96739	1.696739	0.8305537	149.12
0.4895	16.96453	1.696453	0.8304137	149.3
0.4895	16.95701	1.695701	0.8300456	149.47
0.4895	16.95759	1.695759	0.830074	149.64
0.4895	16.95978	1.695978	0.8301812	149.81
0.4895	16.9682	1.69682	0.8305933	149.99
0.4895	16.9753	1.69753	0.8309409	150.16
0.4895	16.97495	1.697495	0.8309238	150.34
0.4895	16.96813	1.696813	0.83059	150.51
0.4895	16.96524	1.696524	0.8304485	150.69
0.4895	16.97289	1.697289	0.8308229	150.86
0.4895	16.95488	1.695488	0.8299413	151.04
0.4895	16.95673	1.695673	0.8300319	151.22
0.4895	16.97938	1.697938	0.8311406	151.39
0.4895	16.9712	1.69712	0.8307402	151.57
0.4895	16.96602	1.696602	0.8304867	151.75
0.4895	16.96519	1.696519	0.8304461	151.92
0.4895	16.96779	1.696779	0.8305733	152.09
0.4895	16.97337	1.697337	0.8308464	152.27
0.4895	16.97118	1.697118	0.8307393	152.45
0.4895	16.9636	1.69636	0.8303682	152.63
0.4895	16.97011	1.697011	0.8306869	152.79
0.4895	16.96986	1.696986	0.8306746	152.97
0.4895	16.974	1.6974	0.8308772	153.15
0.4895	16.98722	1.698722	0.8315244	153.32
0.4895	16.97909	1.697909	0.8311265	153.5
0.4895	16.98356	1.698356	0.8313453	153.68
0.4895	16.97162	1.697162	0.8307608	153.85
0.4895	16.98435	1.698435	0.8313839	154.02
0.4895	16.9828	1.69828	0.831308	154.2
0.4895	16.97239	1.697239	0.8307985	154.37
0.4895	16.97572	1.697572	0.8309615	154.55
0.4895	16.97111	1.697111	0.8307358	154.72
0.4895	16.98199	1.698199	0.8312684	154.9
0.4895	16.98986	1.698986	0.8316537	155.07
0.4895	16.98723	1.698723	0.8315248	155.25
0.4895	16.99156	1.699156	0.8317369	155.42
0.4895	16.97586	1.697586	0.8309684	155.59
0.4895	16.97104	1.697104	0.8307323	155.77
0.4895	16.96978	1.696978	0.8306707	155.93
0.4895	16.97122	1.697122	0.8307412	156.11
0.4895	16.98796	1.698796	0.8315606	156.29
0.4895	16.977	1.6977	0.8310241	156.47
0.4895	16.98575	1.698575	0.8314524	156.64
0.4895	16.97638	1.697638	0.8309938	156.82
0.4895	16.96441	1.696441	0.8304079	157
0.4895	16.97064	1.697064	0.8307129	157.17
0.4895	16.97253	1.697253	0.8308053	157.34
0.4895	16.96897	1.696897	0.8306311	157.52
0.4895	16.96838	1.696838	0.8306022	157.7
0.4895	16.97477	1.697477	0.830915	157.88
0.4895	16.97108	1.697108	0.8307344	158.05
0.4895	16.95829	1.695829	0.8301083	158.22
0.4895	16.95458	1.695458	0.8299267	158.39
0.4895	16.94754	1.694754	0.829582	158.56
0.4895	16.9607	1.69607	0.8302262	158.73
0.4895	16.96085	1.696085	0.8302336	158.91
0.4895	16.96186	1.696186	0.830283	159.09
0.4895	16.95323	1.695323	0.8298606	159.27
0.4895	16.96519	1.696519	0.8304461	159.44
0.4895	16.96947	1.696947	0.8306555	159.62
0.4895	16.967	1.6967	0.8305346	159.8
0.4895	16.96132	1.696132	0.8302566	159.98
0.4895	16.96222	1.696222	0.8303006	160.16
0.4895	16.95914	1.695914	0.8301499	160.34
0.4895	16.95026	1.695026	0.8297153	160.51
0.4895	16.94718	1.694718	0.8295645	160.68
0.4895	16.96682	1.696682	0.8305258	160.86
0.4895	16.959	1.6959	0.830143	161.03
0.4895	16.95343	1.695343	0.8298704	161.21
0.4895	16.94985	1.694985	0.8296952	161.39
0.4895	16.94597	1.694597	0.8295052	161.56
0.4895	16.93752	1.693752	0.8290916	161.74
0.4895	16.94402	1.694402	0.8294097	161.91
0.4895	16.94716	1.694716	0.8295634	162.09
0.4895	16.95559	1.695559	0.8299761	162.27
0.4895	16.94952	1.694952	0.829679	162.44
0.4895	16.94337	1.694337	0.8293779	162.62
0.4895	16.93188	1.693188	0.8288155	162.8
0.4895	16.93798	1.693798	0.8291141	162.98
0.4895	16.92217	1.692217	0.8283402	163.15
0.4895	16.93895	1.693895	0.8291616	163.32
0.4895	16.94149	1.694149	0.8292859	163.49
0.4895	16.93843	1.693843	0.8291361	163.66
0.4895	16.93627	1.693627	0.8290304	163.83
0.4895	16.94391	1.694391	0.8294044	164
0.4895	16.93669	1.693669	0.829051	164.18
0.4895	16.93952	1.693952	0.8291895	164.34
0.4895	16.9523	1.69523	0.8298151	164.51
0.4895	16.96083	1.696083	0.8302326	164.68
0.4895	16.9612	1.69612	0.8302507	164.85
0.4895	16.95676	1.695676	0.8300334	165.02
0.4895	16.94458	1.694458	0.8294372	165.2
0.4895	16.94579	1.694579	0.8294964	165.38
0.4895	16.94211	1.694211	0.8293163	165.54
0.4895	16.93542	1.693542	0.8289888	165.71
0.4895	16.93745	1.693745	0.8290882	165.88
0.4895	16.9374	1.69374	0.8290857	166.05
0.4895	16.9323	1.69323	0.8288361	166.22
0.4895	16.91996	1.691996	0.828232	166.4
0.4895	16.93842	1.693842	0.8291357	166.58
0.4895	16.93263	1.693263	0.8288522	166.75
0.4895	16.91929	1.691929	0.8281992	166.92
0.4895	16.92257	1.692257	0.8283598	167.09
0.4895	16.92763	1.692763	0.8286074	167.26
0.4895	16.95055	1.695055	0.8297294	167.43
0.4895	16.92687	1.692687	0.8285703	167.6
0.4895	16.92296	1.692296	0.8283789	167.78
0.4895	16.92377	1.692377	0.8284185	167.95
0.4895	16.93167	1.693167	0.8288052	168.12
0.4895	16.93291	1.693291	0.8288659	168.29
0.4895	16.94119	1.694119	0.8292712	168.46
0.4895	16.93999	1.693999	0.8292125	168.63
0.4895	16.93392	1.693392	0.8289154	168.8
0.4895	16.93937	1.693937	0.8291821	168.97
0.4895	16.92443	1.692443	0.8284509	169.15
0.4895	16.92478	1.692478	0.8284679	169.32
0.4895	16.91899	1.691899	0.8281845	169.49
0.4895	16.92228	1.692228	0.8283455	169.67
0.4895	16.92511	1.692511	0.8284841	169.84
0.4895	16.9125	1.69125	0.8278669	170.01
